BITPIX  =                    8  /  8-bit ASCII characters                       
NAXIS   =                    1  /  Number of Image Dimensions                   
NAXIS1  =                 2700  /  Length of axis                               
ORIGIN  = 'NOAO-IRAF: WTEXTIMAGE'  /
IRAF-MAX=                   0.  /  Max image pixel (out of date)                
IRAF-MIN=                   0.  /  Min image pixel (out of date)                
IRAF-B/P=                   32  /  Image bits per pixel                         
IRAFTYPE= 'REAL FLOATING     '  /  Image datatype                              
OBJECT  = 'SN1994D UT 4/12/94 80MIN'  /
FILENAME= 'CTIO_40_12APR94   '  /  IRAF filename                               
FORMAT  = '5G14.7            '  /  Text line format                            
EXTEND  =                    F / File may contain extensions                    
ORIGIN  = 'NOAO-IRAF FITS Image Kernel July 2003' / FITS file originator        
DATE    = '2024-04-28T22:46:24' / Date FITS file was generated                  
IRAF-TLM= '2024-04-28T22:46:24' / Time of last modification                     
OBJECT  = 'SN1994D UT 4/12/94 80MIN' / Name of the object observed              
IRAF-MAX=                   0.  /  Max image pixel (out of date)                
IRAF-MIN=                   0.  /  Min image pixel (out of date)                
IRAF-B/P=                   32  /  Image bits per pixel                         
FILENAME= 'WSN94D.N3         '  /  IRAF filename                                
IRAF-MAX=                 523.  /  Max image pixel (out of date)                
IRAF-MIN=                   0.  /  Min image pixel (out of date)                
IRAF-B/P=                   32  /  Image bits per pixel                         
FILENAME= 'SN94D.N3          '  /  IRAF filename                                
IRAF-MAX=           0.000000E0  /  DATA MAX                                     
IRAF-MIN=           0.000000E0  /  DATA MIN                                     
OBSERVAT= 'CTIO              ' / ORIGIN OF DATA                                 
CCDPICNO=                   15 / ORIGINAL CCD PICTURE NUMBER                    
EXPTIME =                 1200 / ACTUAL INTEGRATION TIME (SECONDS)              
DARKTIME=                 1200 / TOTAL ELAPSED TIME (SECONDS)                   
OTIME   =                 1200 / SHUTTER OPEN TIME (SECONDS)                    
IMAGETYP= 'OBJECT            ' / OBJECT,DARK,BIAS,ETC.                          
DATE-OBS= '12/04/94          ' / DATE (DD/MM/YY) OF OBSERVATION                 
RA      = '12:33:45.00'         /  RIGHT ASCENSION (TELESCOPE)                  
DEC     = ' 7:44:21.00'         /  DECLINATION (TELESCOPE)                      
EPOCH   =                1994. / EPOCH OF RA AND DEC                            
ZD      = ' 0:00:38.00'         /  ZENITH DISTANCE                              
HA      = '00:09:42          ' / HOUR ANGLE (H-M-S)                             
UT      = ' 4:06:11.00'         /  UNIVERSAL TIME                               
ST      = '12:43:31.00'         /  SIDEREAL TIME                                
AIRMASS =                1.267 / AIRMASS                                        
DETECTOR= '2D-Frutti         ' / DETECTOR (CCD TYPE, PHOTON COUNTER, ETC)       
CAMTEMP =                   0. / CAMERA TEMPERATURE, DEG C                      
DEWTEMP =                   0. / DEWAR TEMPRATURE, DEG C                        
FILTERS = '0 0               ' / FILTER BOLT POSITIONS                          
TRIMSEC = '[1:256,1:3040]    ' / TRIMMED AREA IN RAW FRAME                      
DATASEC = '[1:256,1:3040]    ' / IMAGE AREA IN RAW FRAME                        
CCDSUM  = '8 1               ' / ON CHIP SUMMATION (X,Y)                        
VEBGAIN =                   30 / VEB GAIN SETTING                               
SECPPIX =                   1. / SEC OF ARC PER PIXEL                           
WCSDIM  =                    1                                                  
CTYPE1  = 'LINEAR  '                                                            
CDELT1  =                1.238                                                  
CD1_1   =                1.238                                                  
LTM1_1  =                   1.                                                  
WAT0_001= 'system=equispec                                                     '
WAT1_001= 'wtype=linear label=Wavelength units=Angstroms                       '
CRVAL1  =                3655.                                                  
CRPIX1  =                   1.                                                  
EX-FLAG =                    0                                                  
CA-FLAG =                    0                                                  
APNUM1  = '1 1 116.02 134.07'                                                   
DC-FLAG =                    0                                                  
DCLOG1  = 'REFSPEC1 = disp3c'                                                   
END                                                                             
                                                                                
                                                                                
                                                                                
                                                                                
                                                                                
3655.  0.
3656.238  0.
3657.476  0.
3658.714  0.
3659.952  0.
3661.19  0.
3662.428  0.
3663.666  0.
3664.904  0.
3666.142  0.
3667.38  0.
3668.618  0.
3669.856  0.
3671.094  0.
3672.332  0.
3673.57  0.
3674.808  0.
3676.046  0.
3677.284  0.
3678.522  0.
3679.76  0.
3680.998  0.
3682.236  0.
3683.474  0.
3684.712  0.
3685.95  0.
3687.188  0.
3688.426  0.
3689.664  0.
3690.902  0.
3692.14  0.
3693.378  0.
3694.616  0.
3695.854  0.
3697.092  0.
3698.33  0.
3699.568  0.
3700.806  0.
3702.044  0.
3703.282  0.
3704.52  0.
3705.758  0.
3706.996  0.
3708.234  0.
3709.472  0.
3710.71  0.
3711.948  0.
3713.186  0.
3714.424  0.
3715.662  0.
3716.9  0.
3718.138  0.
3719.376  0.
3720.614  0.
3721.852  0.
3723.09  0.
3724.328  0.
3725.566  0.
3726.804  0.
3728.042  0.
3729.28  0.
3730.518  0.
3731.756  0.
3732.994  0.
3734.232  0.
3735.47  0.
3736.708  0.
3737.946  0.
3739.184  0.
3740.422  0.
3741.66  0.
3742.898  0.
3744.136  0.
3745.374  0.
3746.612  0.
3747.85  0.
3749.088  0.
3750.326  0.
3751.564  0.
3752.802  0.
3754.04  0.
3755.278  0.
3756.516  0.
3757.754  0.
3758.992  0.
3760.23  0.
3761.468  0.
3762.706  0.
3763.944  0.
3765.182  0.
3766.42  0.
3767.658  0.
3768.896  3.610740E-15
3770.134  1.400869E-14
3771.372  1.538009E-14
3772.61  1.488947E-14
3773.848  1.568313E-14
3775.086  1.407124E-14
3776.324  1.491146E-14
3777.562  1.391815E-14
3778.8  1.360062E-14
3780.038  1.243604E-14
3781.276  1.234952E-14
3782.514  1.311247E-14
3783.752  1.207997E-14
3784.99  1.235051E-14
3786.228  1.243062E-14
3787.466  1.288339E-14
3788.704  1.233670E-14
3789.942  1.194891E-14
3791.18  1.125873E-14
3792.418  1.161775E-14
3793.656  1.173685E-14
3794.894  1.246668E-14
3796.132  1.037955E-14
3797.37  1.085642E-14
3798.608  1.077577E-14
3799.846  1.007444E-14
3801.084  1.042232E-14
3802.322  9.850292E-15
3803.56  8.789920E-15
3804.798  9.376438E-15
3806.036  8.880790E-15
3807.274  8.915245E-15
3808.512  8.306746E-15
3809.75  7.928259E-15
3810.988  9.095077E-15
3812.226  9.101704E-15
3813.464  8.610765E-15
3814.702  7.098818E-15
3815.94  7.604544E-15
3817.178  8.625442E-15
3818.416  8.901338E-15
3819.654  8.283418E-15
3820.892  8.126554E-15
3822.13  8.342373E-15
3823.368  8.076302E-15
3824.606  7.742254E-15
3825.844  7.297747E-15
3827.082  7.185202E-15
3828.32  8.112358E-15
3829.558  7.276675E-15
3830.796  7.146771E-15
3832.034  7.920289E-15
3833.272  7.544321E-15
3834.51  7.153180E-15
3835.748  7.390164E-15
3836.986  6.955747E-15
3838.224  6.647353E-15
3839.462  7.443500E-15
3840.7  7.596146E-15
3841.938  6.965774E-15
3843.176  6.977524E-15
3844.414  7.696730E-15
3845.652  8.572129E-15
3846.89  7.691992E-15
3848.128  7.443011E-15
3849.366  8.629678E-15
3850.604  8.279279E-15
3851.842  8.028474E-15
3853.08  8.285490E-15
3854.318  7.755942E-15
3855.556  8.259346E-15
3856.794  9.062907E-15
3858.032  9.220117E-15
3859.27  9.551130E-15
3860.508  9.589318E-15
3861.746  9.179367E-15
3862.984  9.552766E-15
3864.222  9.128653E-15
3865.46  8.783478E-15
3866.698  9.773214E-15
3867.936  9.426070E-15
3869.174  9.171649E-15
3870.412  9.528963E-15
3871.65  9.779577E-15
3872.888  9.840852E-15
3874.126  9.770700E-15
3875.364  9.578300E-15
3876.602  9.908437E-15
3877.84  9.441380E-15
3879.078  9.416051E-15
3880.316  9.257603E-15
3881.554  9.108919E-15
3882.792  1.060124E-14
3884.03  1.043461E-14
3885.268  9.578039E-15
3886.506  1.029600E-14
3887.744  1.034695E-14
3888.982  9.422537E-15
3890.22  9.277526E-15
3891.458  9.575253E-15
3892.696  9.092196E-15
3893.934  9.077660E-15
3895.172  9.994354E-15
3896.41  9.651895E-15
3897.648  9.723775E-15
3898.886  9.712062E-15
3900.124  9.862769E-15
3901.362  1.011754E-14
3902.6  9.947912E-15
3903.838  1.036879E-14
3905.076  1.106537E-14
3906.314  1.108606E-14
3907.552  9.835550E-15
3908.79  1.056563E-14
3910.028  1.132054E-14
3911.266  1.180395E-14
3912.504  1.177283E-14
3913.742  1.144574E-14
3914.98  1.177249E-14
3916.218  1.107988E-14
3917.456  1.116930E-14
3918.694  1.114594E-14
3919.932  1.123321E-14
3921.17  1.199546E-14
3922.408  1.172987E-14
3923.646  1.211034E-14
3924.884  1.196685E-14
3926.122  1.171450E-14
3927.36  1.173225E-14
3928.598  1.183276E-14
3929.836  1.149453E-14
3931.074  1.045839E-14
3932.312  1.060122E-14
3933.55  1.108341E-14
3934.788  1.111463E-14
3936.026  1.180861E-14
3937.264  1.133351E-14
3938.502  1.089762E-14
3939.74  1.063690E-14
3940.978  1.025120E-14
3942.216  1.014397E-14
3943.454  1.029202E-14
3944.692  1.088898E-14
3945.93  1.142267E-14
3947.168  1.123884E-14
3948.406  1.117530E-14
3949.644  1.177385E-14
3950.882  1.188311E-14
3952.12  1.201308E-14
3953.358  1.216651E-14
3954.596  1.245755E-14
3955.834  1.237265E-14
3957.072  1.258401E-14
3958.31  1.285197E-14
3959.548  1.240332E-14
3960.786  1.327023E-14
3962.024  1.278596E-14
3963.262  1.263407E-14
3964.5  1.286554E-14
3965.738  1.208355E-14
3966.976  1.249430E-14
3968.214  1.268229E-14
3969.452  1.226212E-14
3970.69  1.258909E-14
3971.928  1.260064E-14
3973.166  1.256762E-14
3974.404  1.189883E-14
3975.642  1.121983E-14
3976.88  1.134385E-14
3978.118  1.182926E-14
3979.356  1.151083E-14
3980.594  1.212506E-14
3981.832  1.243778E-14
3983.07  1.195422E-14
3984.308  1.278078E-14
3985.546  1.258152E-14
3986.784  1.172694E-14
3988.022  1.206635E-14
3989.26  1.186098E-14
3990.498  1.218504E-14
3991.736  1.277810E-14
3992.974  1.261361E-14
3994.212  1.243823E-14
3995.45  1.180046E-14
3996.688  1.222556E-14
3997.926  1.280477E-14
3999.164  1.247807E-14
4000.402  1.185512E-14
4001.64  1.281954E-14
4002.878  1.271193E-14
4004.116  1.212942E-14
4005.354  1.249610E-14
4006.592  1.228446E-14
4007.83  1.243306E-14
4009.068  1.233268E-14
4010.306  1.173201E-14
4011.544  1.217771E-14
4012.782  1.244667E-14
4014.02  1.192894E-14
4015.258  1.220777E-14
4016.496  1.251780E-14
4017.734  1.180942E-14
4018.972  1.131935E-14
4020.21  1.167480E-14
4021.448  1.097338E-14
4022.686  1.098681E-14
4023.924  1.108004E-14
4025.162  1.179066E-14
4026.4  1.166188E-14
4027.638  1.109884E-14
4028.876  1.111972E-14
4030.114  1.122390E-14
4031.352  1.211515E-14
4032.59  1.198125E-14
4033.828  1.092919E-14
4035.066  1.140708E-14
4036.304  1.178116E-14
4037.542  1.160752E-14
4038.78  1.162855E-14
4040.018  1.155710E-14
4041.256  1.155781E-14
4042.494  1.137939E-14
4043.732  1.106771E-14
4044.97  1.136556E-14
4046.208  1.155604E-14
4047.446  1.149302E-14
4048.684  1.176702E-14
4049.922  1.161049E-14
4051.16  1.120249E-14
4052.398  1.199800E-14
4053.636  1.212366E-14
4054.874  1.125408E-14
4056.112  1.115620E-14
4057.35  1.133250E-14
4058.588  1.171165E-14
4059.826  1.147225E-14
4061.064  1.180302E-14
4062.302  1.208977E-14
4063.54  1.180375E-14
4064.778  1.216997E-14
4066.016  1.154670E-14
4067.254  1.083976E-14
4068.492  1.131275E-14
4069.73  1.173601E-14
4070.968  1.079857E-14
4072.206  1.055784E-14
4073.444  1.077267E-14
4074.682  1.069106E-14
4075.92  1.060650E-14
4077.158  1.056041E-14
4078.396  1.039243E-14
4079.634  1.009989E-14
4080.872  1.047556E-14
4082.11  1.085564E-14
4083.348  1.056484E-14
4084.586  1.063036E-14
4085.824  1.080668E-14
4087.062  1.049508E-14
4088.3  1.103184E-14
4089.538  1.131356E-14
4090.776  1.122258E-14
4092.014  1.107195E-14
4093.252  1.075238E-14
4094.49  1.075273E-14
4095.728  1.127689E-14
4096.966  1.101236E-14
4098.204  1.124773E-14
4099.442  1.153150E-14
4100.68  1.110003E-14
4101.918  1.106892E-14
4103.156  1.094461E-14
4104.394  1.062186E-14
4105.632  1.093513E-14
4106.87  1.078623E-14
4108.108  1.041810E-14
4109.346  1.077385E-14
4110.584  1.054813E-14
4111.822  1.001887E-14
4113.06  1.048369E-14
4114.298  1.034923E-14
4115.536  1.032337E-14
4116.774  1.041378E-14
4118.012  1.010090E-14
4119.25  9.914984E-15
4120.488  1.021755E-14
4121.726  1.058225E-14
4122.964  1.052745E-14
4124.202  1.046594E-14
4125.44  1.045509E-14
4126.678  1.011711E-14
4127.916  1.016630E-14
4129.154  1.060137E-14
4130.392  9.791675E-15
4131.63  9.651872E-15
4132.868  1.030825E-14
4134.106  1.066218E-14
4135.344  1.045123E-14
4136.582  9.862591E-15
4137.82  9.238571E-15
4139.058  9.275263E-15
4140.296  9.891594E-15
4141.534  1.004154E-14
4142.772  1.005571E-14
4144.01  9.888269E-15
4145.248  9.814721E-15
4146.486  9.991332E-15
4147.724  1.011542E-14
4148.962  9.837312E-15
4150.2  9.688968E-15
4151.438  9.882080E-15
4152.676  1.003120E-14
4153.914  9.760493E-15
4155.152  1.004306E-14
4156.39  1.035624E-14
4157.628  1.033934E-14
4158.866  1.014162E-14
4160.104  9.845298E-15
4161.342  1.017920E-14
4162.58  1.023261E-14
4163.818  1.027016E-14
4165.056  1.045861E-14
4166.294  1.067570E-14
4167.532  1.062469E-14
4168.77  1.057417E-14
4170.008  1.113957E-14
4171.246  1.122450E-14
4172.484  1.125997E-14
4173.722  1.128304E-14
4174.96  1.104766E-14
4176.198  1.099112E-14
4177.436  1.124432E-14
4178.674  1.100012E-14
4179.912  1.060415E-14
4181.15  1.096581E-14
4182.388  1.122354E-14
4183.626  1.110363E-14
4184.864  1.105794E-14
4186.102  1.088383E-14
4187.34  1.084978E-14
4188.578  1.121593E-14
4189.816  1.184862E-14
4191.054  1.129596E-14
4192.292  1.135906E-14
4193.53  1.118790E-14
4194.768  1.092569E-14
4196.006  1.126225E-14
4197.244  1.167904E-14
4198.482  1.160550E-14
4199.72  1.136723E-14
4200.958  1.117681E-14
4202.196  1.148494E-14
4203.434  1.179106E-14
4204.672  1.135559E-14
4205.91  1.101822E-14
4207.148  1.094208E-14
4208.386  1.100493E-14
4209.624  1.075033E-14
4210.862  1.061871E-14
4212.1  1.107366E-14
4213.338  1.108743E-14
4214.576  1.112562E-14
4215.814  1.195321E-14
4217.052  1.200177E-14
4218.29  1.177891E-14
4219.528  1.172706E-14
4220.766  1.142049E-14
4222.004  1.100336E-14
4223.242  1.125906E-14
4224.48  1.185083E-14
4225.718  1.193833E-14
4226.956  1.162793E-14
4228.194  1.133202E-14
4229.432  1.166598E-14
4230.67  1.182286E-14
4231.908  1.117152E-14
4233.146  1.147111E-14
4234.384  1.152278E-14
4235.622  1.103667E-14
4236.86  1.068679E-14
4238.098  1.087312E-14
4239.336  1.151422E-14
4240.574  1.105400E-14
4241.812  1.075648E-14
4243.05  1.130558E-14
4244.288  1.200475E-14
4245.526  1.202871E-14
4246.764  1.185327E-14
4248.002  1.176287E-14
4249.24  1.141418E-14
4250.478  1.164594E-14
4251.716  1.182016E-14
4252.954  1.195399E-14
4254.192  1.224792E-14
4255.43  1.213937E-14
4256.668  1.251650E-14
4257.906  1.243806E-14
4259.144  1.202856E-14
4260.382  1.163989E-14
4261.62  1.161194E-14
4262.858  1.180313E-14
4264.096  1.189172E-14
4265.334  1.193390E-14
4266.572  1.191059E-14
4267.81  1.179713E-14
4269.048  1.178556E-14
4270.286  1.171974E-14
4271.524  1.197284E-14
4272.762  1.206360E-14
4274.  1.223169E-14
4275.238  1.209264E-14
4276.476  1.209665E-14
4277.714  1.247707E-14
4278.952  1.200791E-14
4280.19  1.249612E-14
4281.428  1.268989E-14
4282.666  1.203105E-14
4283.904  1.187922E-14
4285.142  1.214434E-14
4286.38  1.256743E-14
4287.618  1.241169E-14
4288.856  1.234799E-14
4290.094  1.234697E-14
4291.332  1.244108E-14
4292.57  1.228983E-14
4293.808  1.198763E-14
4295.046  1.211558E-14
4296.284  1.249888E-14
4297.522  1.231719E-14
4298.76  1.188823E-14
4299.998  1.190416E-14
4301.236  1.263966E-14
4302.474  1.306199E-14
4303.712  1.286493E-14
4304.95  1.275636E-14
4306.188  1.268046E-14
4307.426  1.291478E-14
4308.664  1.270479E-14
4309.902  1.267612E-14
4311.14  1.259594E-14
4312.378  1.261685E-14
4313.616  1.239899E-14
4314.854  1.185184E-14
4316.092  1.204984E-14
4317.33  1.251163E-14
4318.568  1.240885E-14
4319.806  1.211384E-14
4321.044  1.243601E-14
4322.282  1.290156E-14
4323.52  1.293207E-14
4324.758  1.280462E-14
4325.996  1.313609E-14
4327.234  1.318394E-14
4328.472  1.284793E-14
4329.71  1.299555E-14
4330.948  1.363272E-14
4332.186  1.377642E-14
4333.424  1.304721E-14
4334.662  1.278109E-14
4335.9  1.302013E-14
4337.138  1.331282E-14
4338.376  1.320643E-14
4339.614  1.309968E-14
4340.852  1.301897E-14
4342.09  1.285218E-14
4343.328  1.311539E-14
4344.566  1.343606E-14
4345.804  1.251247E-14
4347.042  1.225393E-14
4348.28  1.279412E-14
4349.518  1.290259E-14
4350.756  1.274957E-14
4351.994  1.272674E-14
4353.232  1.252754E-14
4354.47  1.276979E-14
4355.708  1.267907E-14
4356.946  1.217553E-14
4358.184  1.195715E-14
4359.422  1.201240E-14
4360.66  1.230624E-14
4361.898  1.196764E-14
4363.136  1.203088E-14
4364.374  1.232042E-14
4365.612  1.191799E-14
4366.85  1.152775E-14
4368.088  1.114815E-14
4369.326  1.113711E-14
4370.564  1.162744E-14
4371.802  1.208927E-14
4373.04  1.214078E-14
4374.278  1.222386E-14
4375.516  1.198434E-14
4376.754  1.162967E-14
4377.992  1.182778E-14
4379.23  1.150761E-14
4380.468  1.110249E-14
4381.706  1.079012E-14
4382.944  1.087676E-14
4384.182  1.081730E-14
4385.42  1.072415E-14
4386.658  1.079047E-14
4387.896  1.041744E-14
4389.134  9.761906E-15
4390.372  9.709398E-15
4391.61  9.961218E-15
4392.848  9.940004E-15
4394.086  9.975343E-15
4395.324  9.935168E-15
4396.562  9.837236E-15
4397.8  9.812071E-15
4399.038  9.968823E-15
4400.276  1.002664E-14
4401.514  9.741227E-15
4402.752  9.526148E-15
4403.99  9.739304E-15
4405.228  9.960284E-15
4406.466  9.872161E-15
4407.704  1.004717E-14
4408.942  9.912838E-15
4410.18  9.395225E-15
4411.418  9.369980E-15
4412.656  9.404033E-15
4413.894  9.536584E-15
4415.132  9.757742E-15
4416.37  9.295760E-15
4417.608  8.973145E-15
4418.846  9.035089E-15
4420.084  9.402042E-15
4421.322  9.712247E-15
4422.56  9.751797E-15
4423.798  9.784883E-15
4425.036  9.790746E-15
4426.274  9.606218E-15
4427.512  9.714811E-15
4428.75  9.324865E-15
4429.988  9.073059E-15
4431.226  9.102945E-15
4432.464  9.392215E-15
4433.702  9.930890E-15
4434.94  9.801191E-15
4436.178  9.693946E-15
4437.416  1.010209E-14
4438.654  1.014561E-14
4439.892  9.742829E-15
4441.13  9.729498E-15
4442.368  9.875484E-15
4443.606  9.932640E-15
4444.844  9.844706E-15
4446.082  9.966526E-15
4447.32  9.869051E-15
4448.558  9.514741E-15
4449.796  9.722554E-15
4451.034  9.822374E-15
4452.272  9.588260E-15
4453.51  9.919912E-15
4454.748  1.029608E-14
4455.986  9.836135E-15
4457.224  1.005245E-14
4458.462  1.035866E-14
4459.7  1.003007E-14
4460.938  1.005059E-14
4462.176  9.830599E-15
4463.414  9.847434E-15
4464.652  1.007720E-14
4465.89  9.846948E-15
4467.128  9.598880E-15
4468.366  9.334070E-15
4469.604  9.538629E-15
4470.842  1.003098E-14
4472.08  1.007816E-14
4473.318  9.661681E-15
4474.556  9.743851E-15
4475.794  9.818438E-15
4477.032  9.731463E-15
4478.27  9.839437E-15
4479.508  9.916745E-15
4480.746  9.954041E-15
4481.984  9.818462E-15
4483.222  9.733155E-15
4484.46  1.018866E-14
4485.698  1.047299E-14
4486.936  1.047374E-14
4488.174  1.027941E-14
4489.412  1.058767E-14
4490.65  1.089471E-14
4491.888  1.126440E-14
4493.126  1.141022E-14
4494.364  1.115500E-14
4495.602  1.088730E-14
4496.84  1.086506E-14
4498.078  1.107423E-14
4499.316  1.093892E-14
4500.554  1.097615E-14
4501.792  1.147692E-14
4503.03  1.116482E-14
4504.268  1.078933E-14
4505.506  1.103710E-14
4506.744  1.134189E-14
4507.982  1.132913E-14
4509.22  1.126316E-14
4510.458  1.145908E-14
4511.696  1.149107E-14
4512.934  1.171771E-14
4514.172  1.190924E-14
4515.41  1.205742E-14
4516.648  1.211688E-14
4517.886  1.217248E-14
4519.124  1.257657E-14
4520.362  1.246527E-14
4521.6  1.272617E-14
4522.838  1.269977E-14
4524.076  1.244163E-14
4525.314  1.267695E-14
4526.552  1.262091E-14
4527.79  1.299378E-14
4529.028  1.336055E-14
4530.266  1.344730E-14
4531.504  1.346942E-14
4532.742  1.305181E-14
4533.98  1.315052E-14
4535.218  1.352508E-14
4536.456  1.361225E-14
4537.694  1.361112E-14
4538.932  1.302067E-14
4540.17  1.322631E-14
4541.408  1.393702E-14
4542.646  1.403812E-14
4543.884  1.404532E-14
4545.122  1.410371E-14
4546.36  1.464562E-14
4547.598  1.535047E-14
4548.836  1.538792E-14
4550.074  1.553714E-14
4551.312  1.586849E-14
4552.55  1.607789E-14
4553.788  1.626870E-14
4555.026  1.648243E-14
4556.264  1.666247E-14
4557.502  1.684418E-14
4558.74  1.686192E-14
4559.978  1.674146E-14
4561.216  1.698684E-14
4562.454  1.714012E-14
4563.692  1.689790E-14
4564.93  1.688609E-14
4566.168  1.749394E-14
4567.406  1.765661E-14
4568.644  1.788663E-14
4569.882  1.801249E-14
4571.12  1.817475E-14
4572.358  1.807562E-14
4573.596  1.791007E-14
4574.834  1.818488E-14
4576.072  1.845061E-14
4577.31  1.849545E-14
4578.548  1.850858E-14
4579.786  1.838129E-14
4581.024  1.813224E-14
4582.262  1.826979E-14
4583.5  1.884151E-14
4584.738  1.885069E-14
4585.976  1.857402E-14
4587.214  1.858463E-14
4588.452  1.851498E-14
4589.69  1.839050E-14
4590.928  1.883842E-14
4592.166  1.869355E-14
4593.404  1.862042E-14
4594.642  1.831752E-14
4595.88  1.858502E-14
4597.118  1.888271E-14
4598.356  1.874983E-14
4599.594  1.836785E-14
4600.832  1.819697E-14
4602.07  1.814996E-14
4603.308  1.818698E-14
4604.546  1.889795E-14
4605.784  1.896410E-14
4607.022  1.924175E-14
4608.26  1.994935E-14
4609.498  2.000020E-14
4610.736  1.973147E-14
4611.974  1.933333E-14
4613.212  1.927809E-14
4614.45  1.966718E-14
4615.688  1.945933E-14
4616.926  1.893066E-14
4618.164  1.909742E-14
4619.402  1.986284E-14
4620.64  2.028717E-14
4621.878  2.011416E-14
4623.116  2.029848E-14
4624.354  2.070493E-14
4625.592  2.052511E-14
4626.83  2.034328E-14
4628.068  2.055489E-14
4629.306  2.046807E-14
4630.544  2.022059E-14
4631.782  2.042670E-14
4633.02  2.071131E-14
4634.258  2.093452E-14
4635.496  2.090303E-14
4636.734  2.073550E-14
4637.972  2.103692E-14
4639.21  2.063444E-14
4640.448  1.977415E-14
4641.686  1.995469E-14
4642.924  2.033676E-14
4644.162  1.993415E-14
4645.4  1.938110E-14
4646.638  1.944723E-14
4647.876  1.928521E-14
4649.114  1.879650E-14
4650.352  1.886465E-14
4651.59  1.880213E-14
4652.828  1.828360E-14
4654.066  1.802228E-14
4655.304  1.792404E-14
4656.542  1.763112E-14
4657.78  1.714255E-14
4659.018  1.668364E-14
4660.256  1.663822E-14
4661.494  1.685084E-14
4662.732  1.655319E-14
4663.97  1.665979E-14
4665.208  1.700749E-14
4666.446  1.690986E-14
4667.684  1.649408E-14
4668.922  1.609169E-14
4670.16  1.630862E-14
4671.398  1.655031E-14
4672.636  1.634807E-14
4673.874  1.648119E-14
4675.112  1.634011E-14
4676.35  1.588570E-14
4677.588  1.566307E-14
4678.826  1.526343E-14
4680.064  1.511078E-14
4681.302  1.554406E-14
4682.54  1.500303E-14
4683.778  1.469720E-14
4685.016  1.511798E-14
4686.254  1.475746E-14
4687.492  1.469991E-14
4688.73  1.495712E-14
4689.968  1.449272E-14
4691.206  1.413688E-14
4692.444  1.396242E-14
4693.682  1.354318E-14
4694.92  1.382454E-14
4696.158  1.406876E-14
4697.396  1.363500E-14
4698.634  1.342233E-14
4699.872  1.350608E-14
4701.11  1.353066E-14
4702.348  1.325372E-14
4703.586  1.287221E-14
4704.824  1.278948E-14
4706.062  1.289827E-14
4707.3  1.273981E-14
4708.538  1.246869E-14
4709.776  1.264759E-14
4711.014  1.272867E-14
4712.252  1.260241E-14
4713.49  1.262043E-14
4714.728  1.230673E-14
4715.966  1.202407E-14
4717.204  1.207908E-14
4718.442  1.200005E-14
4719.68  1.191476E-14
4720.918  1.179204E-14
4722.156  1.184549E-14
4723.394  1.207521E-14
4724.632  1.197652E-14
4725.87  1.201176E-14
4727.108  1.226689E-14
4728.346  1.206301E-14
4729.584  1.177919E-14
4730.822  1.208962E-14
4732.06  1.242615E-14
4733.298  1.221853E-14
4734.536  1.187159E-14
4735.774  1.192969E-14
4737.012  1.199016E-14
4738.25  1.157015E-14
4739.488  1.147873E-14
4740.726  1.134644E-14
4741.964  1.089879E-14
4743.202  1.108228E-14
4744.44  1.151072E-14
4745.678  1.116537E-14
4746.916  1.057346E-14
4748.154  1.079568E-14
4749.392  1.137593E-14
4750.63  1.141635E-14
4751.868  1.119324E-14
4753.106  1.113657E-14
4754.344  1.106194E-14
4755.582  1.116353E-14
4756.82  1.145482E-14
4758.058  1.165713E-14
4759.296  1.157917E-14
4760.534  1.159129E-14
4761.772  1.177885E-14
4763.01  1.175173E-14
4764.248  1.179011E-14
4765.486  1.175785E-14
4766.724  1.137874E-14
4767.962  1.116214E-14
4769.2  1.109372E-14
4770.438  1.096243E-14
4771.676  1.107101E-14
4772.914  1.157354E-14
4774.152  1.123781E-14
4775.39  1.107023E-14
4776.628  1.154061E-14
4777.866  1.166775E-14
4779.104  1.180363E-14
4780.342  1.177792E-14
4781.58  1.168417E-14
4782.818  1.162933E-14
4784.056  1.194036E-14
4785.294  1.220327E-14
4786.532  1.220849E-14
4787.77  1.212909E-14
4789.008  1.226986E-14
4790.246  1.247347E-14
4791.484  1.251323E-14
4792.722  1.247283E-14
4793.96  1.245273E-14
4795.198  1.218052E-14
4796.436  1.236139E-14
4797.674  1.275023E-14
4798.912  1.296344E-14
4800.15  1.348989E-14
4801.388  1.385849E-14
4802.626  1.354073E-14
4803.864  1.357170E-14
4805.102  1.381059E-14
4806.34  1.343381E-14
4807.578  1.363096E-14
4808.816  1.379808E-14
4810.054  1.396415E-14
4811.292  1.434979E-14
4812.53  1.411820E-14
4813.768  1.375134E-14
4815.006  1.390280E-14
4816.244  1.437978E-14
4817.482  1.442220E-14
4818.72  1.407351E-14
4819.958  1.414047E-14
4821.196  1.406399E-14
4822.434  1.390074E-14
4823.672  1.366221E-14
4824.91  1.383628E-14
4826.148  1.400772E-14
4827.386  1.399132E-14
4828.624  1.385377E-14
4829.862  1.338184E-14
4831.1  1.384359E-14
4832.338  1.448925E-14
4833.576  1.408545E-14
4834.814  1.371205E-14
4836.052  1.376076E-14
4837.29  1.360699E-14
4838.528  1.360750E-14
4839.766  1.379448E-14
4841.004  1.384673E-14
4842.242  1.362595E-14
4843.48  1.356569E-14
4844.718  1.379854E-14
4845.956  1.364157E-14
4847.194  1.347608E-14
4848.432  1.360051E-14
4849.67  1.359371E-14
4850.908  1.346973E-14
4852.146  1.332785E-14
4853.384  1.358102E-14
4854.622  1.370354E-14
4855.86  1.303478E-14
4857.098  1.287336E-14
4858.336  1.334771E-14
4859.574  1.324808E-14
4860.812  1.293997E-14
4862.05  1.324397E-14
4863.288  1.355170E-14
4864.526  1.363905E-14
4865.764  1.377788E-14
4867.002  1.389401E-14
4868.24  1.347930E-14
4869.478  1.327056E-14
4870.716  1.324799E-14
4871.954  1.357312E-14
4873.192  1.385552E-14
4874.43  1.388786E-14
4875.668  1.375187E-14
4876.906  1.393668E-14
4878.144  1.354649E-14
4879.382  1.367793E-14
4880.62  1.419968E-14
4881.858  1.416445E-14
4883.096  1.402823E-14
4884.334  1.409269E-14
4885.572  1.427659E-14
4886.81  1.442539E-14
4888.048  1.476493E-14
4889.286  1.503168E-14
4890.524  1.458361E-14
4891.762  1.485961E-14
4893.  1.524861E-14
4894.238  1.503033E-14
4895.476  1.527100E-14
4896.714  1.526793E-14
4897.952  1.567422E-14
4899.19  1.589588E-14
4900.428  1.537034E-14
4901.666  1.566927E-14
4902.904  1.641311E-14
4904.142  1.662912E-14
4905.38  1.667614E-14
4906.618  1.675624E-14
4907.856  1.672475E-14
4909.094  1.689514E-14
4910.332  1.729372E-14
4911.57  1.727294E-14
4912.808  1.710675E-14
4914.046  1.713792E-14
4915.284  1.740731E-14
4916.522  1.774398E-14
4917.76  1.757545E-14
4918.998  1.804498E-14
4920.236  1.862152E-14
4921.474  1.822862E-14
4922.712  1.786277E-14
4923.95  1.802136E-14
4925.188  1.875981E-14
4926.426  1.853336E-14
4927.664  1.827987E-14
4928.902  1.906772E-14
4930.14  1.938214E-14
4931.378  1.936121E-14
4932.616  1.866867E-14
4933.854  1.824516E-14
4935.092  1.873959E-14
4936.33  1.887771E-14
4937.568  1.883162E-14
4938.806  1.907132E-14
4940.044  1.920621E-14
4941.282  1.910526E-14
4942.52  1.923993E-14
4943.758  1.917812E-14
4944.996  1.924513E-14
4946.234  1.933139E-14
4947.472  1.892771E-14
4948.71  1.883161E-14
4949.948  1.918196E-14
4951.186  1.914242E-14
4952.424  1.886430E-14
4953.662  1.870171E-14
4954.9  1.857821E-14
4956.138  1.869519E-14
4957.376  1.863332E-14
4958.614  1.813941E-14
4959.852  1.805917E-14
4961.09  1.819020E-14
4962.328  1.813201E-14
4963.566  1.838989E-14
4964.804  1.834000E-14
4966.042  1.801986E-14
4967.28  1.809628E-14
4968.518  1.800054E-14
4969.756  1.764445E-14
4970.994  1.694246E-14
4972.232  1.661643E-14
4973.47  1.693163E-14
4974.708  1.739316E-14
4975.946  1.703817E-14
4977.184  1.643130E-14
4978.422  1.652801E-14
4979.66  1.654075E-14
4980.898  1.643461E-14
4982.136  1.623161E-14
4983.374  1.603084E-14
4984.612  1.600942E-14
4985.85  1.577268E-14
4987.088  1.548106E-14
4988.326  1.538630E-14
4989.564  1.536418E-14
4990.802  1.524739E-14
4992.04  1.499909E-14
4993.278  1.460662E-14
4994.516  1.447523E-14
4995.754  1.470865E-14
4996.992  1.444863E-14
4998.23  1.423383E-14
4999.468  1.463557E-14
5000.706  1.475964E-14
5001.944  1.445802E-14
5003.182  1.435700E-14
5004.42  1.424011E-14
5005.658  1.423696E-14
5006.896  1.443223E-14
5008.134  1.396975E-14
5009.372  1.361823E-14
5010.61  1.348025E-14
5011.848  1.333079E-14
5013.086  1.347669E-14
5014.324  1.343670E-14
5015.562  1.352286E-14
5016.8  1.335007E-14
5018.038  1.311778E-14
5019.276  1.284784E-14
5020.514  1.266714E-14
5021.752  1.262116E-14
5022.99  1.224688E-14
5024.228  1.181956E-14
5025.466  1.220290E-14
5026.704  1.279130E-14
5027.942  1.228715E-14
5029.18  1.217953E-14
5030.418  1.251854E-14
5031.656  1.250309E-14
5032.894  1.204301E-14
5034.132  1.174981E-14
5035.37  1.195200E-14
5036.608  1.210506E-14
5037.846  1.211801E-14
5039.084  1.203990E-14
5040.322  1.196647E-14
5041.56  1.204009E-14
5042.798  1.211564E-14
5044.036  1.225439E-14
5045.274  1.217874E-14
5046.512  1.201092E-14
5047.75  1.194428E-14
5048.988  1.157864E-14
5050.226  1.170063E-14
5051.464  1.169634E-14
5052.702  1.163764E-14
5053.94  1.123072E-14
5055.178  1.127174E-14
5056.416  1.145080E-14
5057.654  1.170197E-14
5058.892  1.144604E-14
5060.13  1.169742E-14
5061.368  1.162800E-14
5062.606  1.121424E-14
5063.844  1.121527E-14
5065.082  1.143894E-14
5066.32  1.137382E-14
5067.558  1.135978E-14
5068.796  1.125205E-14
5070.034  1.125601E-14
5071.272  1.126299E-14
5072.51  1.110151E-14
5073.748  1.108703E-14
5074.986  1.129185E-14
5076.224  1.148063E-14
5077.462  1.134995E-14
5078.7  1.101214E-14
5079.938  1.095118E-14
5081.176  1.080660E-14
5082.414  1.042909E-14
5083.652  1.036825E-14
5084.89  1.035047E-14
5086.128  1.078785E-14
5087.366  1.092846E-14
5088.604  1.112611E-14
5089.842  1.125667E-14
5091.08  1.100386E-14
5092.318  1.085571E-14
5093.556  1.077264E-14
5094.794  1.098398E-14
5096.032  1.081312E-14
5097.27  1.094086E-14
5098.508  1.126488E-14
5099.746  1.120286E-14
5100.984  1.112499E-14
5102.222  1.095173E-14
5103.46  1.075186E-14
5104.698  1.097205E-14
5105.936  1.116021E-14
5107.174  1.095641E-14
5108.412  1.097937E-14
5109.65  1.085156E-14
5110.888  1.035242E-14
5112.126  1.057462E-14
5113.364  1.108132E-14
5114.602  1.111077E-14
5115.84  1.112011E-14
5117.078  1.090451E-14
5118.316  1.076637E-14
5119.554  1.082659E-14
5120.792  1.074508E-14
5122.03  1.067490E-14
5123.268  1.074177E-14
5124.506  1.058498E-14
5125.744  1.036732E-14
5126.982  1.018785E-14
5128.22  1.030119E-14
5129.458  1.043863E-14
5130.696  1.066028E-14
5131.934  1.066734E-14
5133.172  1.047966E-14
5134.41  1.031960E-14
5135.648  1.045718E-14
5136.886  1.044794E-14
5138.124  1.028365E-14
5139.362  1.009896E-14
5140.6  9.834628E-15
5141.838  9.997408E-15
5143.076  1.038797E-14
5144.314  1.026336E-14
5145.552  9.897860E-15
5146.79  9.851588E-15
5148.028  1.014611E-14
5149.266  1.037277E-14
5150.504  1.042227E-14
5151.742  1.032386E-14
5152.98  1.060150E-14
5154.218  1.110028E-14
5155.456  1.131869E-14
5156.694  1.109920E-14
5157.932  1.035676E-14
5159.17  1.006897E-14
5160.408  1.067864E-14
5161.646  1.118779E-14
5162.884  1.109171E-14
5164.122  1.086486E-14
5165.36  1.055676E-14
5166.598  1.047350E-14
5167.836  1.076541E-14
5169.074  1.074466E-14
5170.312  1.052640E-14
5171.55  1.066359E-14
5172.788  1.071761E-14
5174.026  1.057525E-14
5175.264  1.058699E-14
5176.502  1.050482E-14
5177.74  1.056974E-14
5178.978  1.069117E-14
5180.216  1.048061E-14
5181.454  1.036258E-14
5182.692  1.033115E-14
5183.93  1.065768E-14
5185.168  1.097804E-14
5186.406  1.139274E-14
5187.644  1.168849E-14
5188.882  1.127655E-14
5190.12  1.123257E-14
5191.358  1.164911E-14
5192.596  1.168515E-14
5193.834  1.193301E-14
5195.072  1.223905E-14
5196.31  1.191169E-14
5197.548  1.156192E-14
5198.786  1.165066E-14
5200.024  1.170519E-14
5201.262  1.162041E-14
5202.5  1.181234E-14
5203.738  1.217750E-14
5204.976  1.248449E-14
5206.214  1.301735E-14
5207.452  1.305618E-14
5208.69  1.245456E-14
5209.928  1.235141E-14
5211.166  1.268463E-14
5212.404  1.295198E-14
5213.642  1.302068E-14
5214.88  1.343252E-14
5216.118  1.335066E-14
5217.356  1.310808E-14
5218.594  1.325330E-14
5219.832  1.343009E-14
5221.07  1.364562E-14
5222.308  1.387267E-14
5223.546  1.397298E-14
5224.784  1.405640E-14
5226.022  1.423044E-14
5227.26  1.447731E-14
5228.498  1.456481E-14
5229.736  1.453439E-14
5230.974  1.480819E-14
5232.212  1.512337E-14
5233.45  1.502056E-14
5234.688  1.449344E-14
5235.926  1.424480E-14
5237.164  1.434223E-14
5238.402  1.443194E-14
5239.64  1.457881E-14
5240.878  1.434540E-14
5242.116  1.457609E-14
5243.354  1.493212E-14
5244.592  1.493281E-14
5245.83  1.528001E-14
5247.068  1.534152E-14
5248.306  1.491733E-14
5249.544  1.493695E-14
5250.782  1.517536E-14
5252.02  1.524831E-14
5253.258  1.534655E-14
5254.496  1.531570E-14
5255.734  1.526232E-14
5256.972  1.518011E-14
5258.21  1.498754E-14
5259.448  1.489813E-14
5260.686  1.534778E-14
5261.924  1.585388E-14
5263.162  1.597831E-14
5264.4  1.616208E-14
5265.638  1.586551E-14
5266.876  1.555015E-14
5268.114  1.580419E-14
5269.352  1.578524E-14
5270.59  1.584480E-14
5271.828  1.572090E-14
5273.066  1.586309E-14
5274.304  1.619521E-14
5275.542  1.621117E-14
5276.78  1.641126E-14
5278.018  1.665323E-14
5279.256  1.673845E-14
5280.494  1.644913E-14
5281.732  1.623070E-14
5282.97  1.658895E-14
5284.208  1.657377E-14
5285.446  1.687813E-14
5286.684  1.705456E-14
5287.922  1.671260E-14
5289.16  1.627434E-14
5290.398  1.684176E-14
5291.636  1.701026E-14
5292.874  1.674265E-14
5294.112  1.677277E-14
5295.35  1.697582E-14
5296.588  1.745824E-14
5297.826  1.770427E-14
5299.064  1.766161E-14
5300.302  1.788341E-14
5301.54  1.802780E-14
5302.778  1.802883E-14
5304.016  1.789173E-14
5305.254  1.760355E-14
5306.492  1.779517E-14
5307.73  1.818322E-14
5308.968  1.812071E-14
5310.206  1.834529E-14
5311.444  1.825259E-14
5312.682  1.786343E-14
5313.92  1.810130E-14
5315.158  1.825960E-14
5316.396  1.848374E-14
5317.634  1.837504E-14
5318.872  1.794269E-14
5320.11  1.813760E-14
5321.348  1.820034E-14
5322.586  1.799688E-14
5323.824  1.832006E-14
5325.062  1.833748E-14
5326.3  1.791197E-14
5327.538  1.799935E-14
5328.776  1.831365E-14
5330.014  1.816217E-14
5331.252  1.802405E-14
5332.49  1.800493E-14
5333.728  1.752828E-14
5334.966  1.732341E-14
5336.204  1.746946E-14
5337.442  1.726755E-14
5338.68  1.731691E-14
5339.918  1.751211E-14
5341.156  1.748515E-14
5342.394  1.700984E-14
5343.632  1.671005E-14
5344.87  1.697126E-14
5346.108  1.720088E-14
5347.346  1.709157E-14
5348.584  1.717042E-14
5349.822  1.740400E-14
5351.06  1.710018E-14
5352.298  1.702925E-14
5353.536  1.699579E-14
5354.774  1.657943E-14
5356.012  1.705618E-14
5357.25  1.752444E-14
5358.488  1.741440E-14
5359.726  1.719492E-14
5360.964  1.729319E-14
5362.202  1.667881E-14
5363.44  1.675979E-14
5364.678  1.734094E-14
5365.916  1.791300E-14
5367.154  1.772510E-14
5368.392  1.726173E-14
5369.63  1.743318E-14
5370.868  1.746459E-14
5372.106  1.763609E-14
5373.344  1.777158E-14
5374.582  1.755837E-14
5375.82  1.755306E-14
5377.058  1.714359E-14
5378.296  1.738094E-14
5379.534  1.733109E-14
5380.772  1.703133E-14
5382.01  1.725829E-14
5383.248  1.745754E-14
5384.486  1.771075E-14
5385.724  1.784136E-14
5386.962  1.763688E-14
5388.2  1.791360E-14
5389.438  1.794940E-14
5390.676  1.765594E-14
5391.914  1.822268E-14
5393.152  1.882731E-14
5394.39  1.879757E-14
5395.628  1.878978E-14
5396.866  1.865548E-14
5398.104  1.866172E-14
5399.342  1.860716E-14
5400.58  1.882937E-14
5401.818  1.925988E-14
5403.056  1.933186E-14
5404.294  1.918404E-14
5405.532  1.916043E-14
5406.77  1.956731E-14
5408.008  1.922021E-14
5409.246  1.882126E-14
5410.484  1.925743E-14
5411.722  1.966273E-14
5412.96  1.961931E-14
5414.198  1.947890E-14
5415.436  1.951627E-14
5416.674  1.980846E-14
5417.912  2.003291E-14
5419.15  2.016523E-14
5420.388  2.013739E-14
5421.626  2.042339E-14
5422.864  2.070732E-14
5424.102  2.110160E-14
5425.34  2.130833E-14
5426.578  2.137626E-14
5427.816  2.223050E-14
5429.054  2.223069E-14
5430.292  2.234435E-14
5431.53  2.200273E-14
5432.768  2.171263E-14
5434.006  2.263113E-14
5435.244  2.288939E-14
5436.482  2.251252E-14
5437.72  2.272311E-14
5438.958  2.255578E-14
5440.196  2.259567E-14
5441.434  2.263729E-14
5442.672  2.301455E-14
5443.91  2.365357E-14
5445.148  2.388088E-14
5446.386  2.405589E-14
5447.624  2.343657E-14
5448.862  2.314356E-14
5450.1  2.323021E-14
5451.338  2.363131E-14
5452.576  2.386659E-14
5453.814  2.439703E-14
5455.052  2.447447E-14
5456.29  2.423209E-14
5457.528  2.450780E-14
5458.766  2.450967E-14
5460.004  2.419142E-14
5461.242  2.381221E-14
5462.48  2.374875E-14
5463.718  2.414058E-14
5464.956  2.364559E-14
5466.194  2.380952E-14
5467.432  2.419426E-14
5468.67  2.473772E-14
5469.908  2.480720E-14
5471.146  2.457906E-14
5472.384  2.419493E-14
5473.622  2.422557E-14
5474.86  2.453578E-14
5476.098  2.460715E-14
5477.336  2.472648E-14
5478.574  2.519958E-14
5479.812  2.562829E-14
5481.05  2.563932E-14
5482.288  2.542393E-14
5483.526  2.536224E-14
5484.764  2.536911E-14
5486.002  2.526534E-14
5487.24  2.550319E-14
5488.478  2.558298E-14
5489.716  2.578415E-14
5490.954  2.547573E-14
5492.192  2.573368E-14
5493.43  2.547807E-14
5494.668  2.573735E-14
5495.906  2.575083E-14
5497.144  2.574754E-14
5498.382  2.575815E-14
5499.62  2.583235E-14
5500.858  2.635771E-14
5502.096  2.646243E-14
5503.334  2.617542E-14
5504.572  2.604429E-14
5505.81  2.570313E-14
5507.048  2.583146E-14
5508.286  2.564698E-14
5509.524  2.443531E-14
5510.762  2.427252E-14
5512.  2.500159E-14
5513.238  2.480072E-14
5514.476  2.506074E-14
5515.714  2.580037E-14
5516.952  2.575857E-14
5518.19  2.570057E-14
5519.428  2.566873E-14
5520.666  2.598566E-14
5521.904  2.591070E-14
5523.142  2.487920E-14
5524.38  2.485577E-14
5525.618  2.544869E-14
5526.856  2.504107E-14
5528.094  2.503038E-14
5529.332  2.531712E-14
5530.57  2.575691E-14
5531.808  2.537577E-14
5533.046  2.470455E-14
5534.284  2.469760E-14
5535.522  2.515954E-14
5536.76  2.545108E-14
5537.998  2.543940E-14
5539.236  2.507253E-14
5540.474  2.516473E-14
5541.712  2.608640E-14
5542.95  2.584289E-14
5544.188  2.487101E-14
5545.426  2.435114E-14
5546.664  2.456812E-14
5547.902  2.546265E-14
5549.14  2.515339E-14
5550.378  2.479767E-14
5551.616  2.463192E-14
5552.854  2.513765E-14
5554.092  2.559271E-14
5555.33  2.525276E-14
5556.568  2.510796E-14
5557.806  2.474238E-14
5559.044  2.444323E-14
5560.282  2.441642E-14
5561.52  2.461335E-14
5562.758  2.439587E-14
5563.996  2.414366E-14
5565.234  2.457744E-14
5566.472  2.508897E-14
5567.71  2.489414E-14
5568.948  2.450747E-14
5570.186  2.461565E-14
5571.424  2.463321E-14
5572.662  2.439150E-14
5573.9  2.468372E-14
5575.138  2.502687E-14
5576.376  2.512899E-14
5577.614  2.610493E-14
5578.852  2.620008E-14
5580.09  2.579969E-14
5581.328  2.497374E-14
5582.566  2.455229E-14
5583.804  2.502733E-14
5585.042  2.444597E-14
5586.28  2.460383E-14
5587.518  2.455710E-14
5588.756  2.337054E-14
5589.994  2.352156E-14
5591.232  2.447153E-14
5592.47  2.433459E-14
5593.708  2.350330E-14
5594.946  2.349576E-14
5596.184  2.293208E-14
5597.422  2.229385E-14
5598.66  2.255319E-14
5599.898  2.244287E-14
5601.136  2.250666E-14
5602.374  2.297993E-14
5603.612  2.222391E-14
5604.85  2.182930E-14
5606.088  2.170521E-14
5607.326  2.233266E-14
5608.564  2.281414E-14
5609.802  2.244165E-14
5611.04  2.202853E-14
5612.278  2.197145E-14
5613.516  2.192459E-14
5614.754  2.184413E-14
5615.992  2.202821E-14
5617.23  2.191467E-14
5618.468  2.181882E-14
5619.706  2.125357E-14
5620.944  2.159227E-14
5622.182  2.163765E-14
5623.42  2.126514E-14
5624.658  2.085636E-14
5625.896  2.120190E-14
5627.134  2.142402E-14
5628.372  2.112236E-14
5629.61  2.126713E-14
5630.848  2.102479E-14
5632.086  2.040867E-14
5633.324  2.023605E-14
5634.562  2.058714E-14
5635.8  2.054930E-14
5637.038  2.000395E-14
5638.276  1.979680E-14
5639.514  1.926709E-14
5640.752  1.924306E-14
5641.99  1.919411E-14
5643.228  1.985101E-14
5644.466  1.975582E-14
5645.704  1.936071E-14
5646.942  1.987150E-14
5648.18  1.990217E-14
5649.418  1.945946E-14
5650.656  1.967731E-14
5651.894  1.963389E-14
5653.132  1.919665E-14
5654.37  1.923443E-14
5655.608  1.927477E-14
5656.846  1.937311E-14
5658.084  1.918384E-14
5659.322  1.873458E-14
5660.56  1.884432E-14
5661.798  1.833959E-14
5663.036  1.821288E-14
5664.274  1.899423E-14
5665.512  1.972150E-14
5666.75  1.907752E-14
5667.988  1.877406E-14
5669.226  1.838379E-14
5670.464  1.790747E-14
5671.702  1.761283E-14
5672.94  1.700735E-14
5674.178  1.715736E-14
5675.416  1.743182E-14
5676.654  1.772017E-14
5677.892  1.769141E-14
5679.13  1.776897E-14
5680.368  1.763692E-14
5681.606  1.720142E-14
5682.844  1.763268E-14
5684.082  1.786707E-14
5685.32  1.763771E-14
5686.558  1.734922E-14
5687.796  1.733969E-14
5689.034  1.724136E-14
5690.272  1.705641E-14
5691.51  1.714485E-14
5692.748  1.684723E-14
5693.986  1.695356E-14
5695.224  1.691052E-14
5696.462  1.733905E-14
5697.7  1.697825E-14
5698.938  1.663200E-14
5700.176  1.655353E-14
5701.414  1.587952E-14
5702.652  1.599321E-14
5703.89  1.682383E-14
5705.128  1.685373E-14
5706.366  1.686274E-14
5707.604  1.708088E-14
5708.842  1.684715E-14
5710.08  1.683756E-14
5711.318  1.678110E-14
5712.556  1.629310E-14
5713.794  1.582085E-14
5715.032  1.662246E-14
5716.27  1.646650E-14
5717.508  1.596981E-14
5718.746  1.631837E-14
5719.984  1.617473E-14
5721.222  1.563341E-14
5722.46  1.612892E-14
5723.698  1.643725E-14
5724.936  1.576981E-14
5726.174  1.529311E-14
5727.412  1.583808E-14
5728.65  1.654242E-14
5729.888  1.655746E-14
5731.126  1.660636E-14
5732.364  1.673409E-14
5733.602  1.676600E-14
5734.84  1.658516E-14
5736.078  1.653998E-14
5737.316  1.733439E-14
5738.554  1.704230E-14
5739.792  1.657724E-14
5741.03  1.668068E-14
5742.268  1.712057E-14
5743.506  1.751670E-14
5744.744  1.707982E-14
5745.982  1.703446E-14
5747.22  1.679827E-14
5748.458  1.738378E-14
5749.696  1.760315E-14
5750.934  1.726905E-14
5752.172  1.750320E-14
5753.41  1.691268E-14
5754.648  1.709374E-14
5755.886  1.805552E-14
5757.124  1.802102E-14
5758.362  1.771689E-14
5759.6  1.753362E-14
5760.838  1.752502E-14
5762.076  1.713709E-14
5763.314  1.729981E-14
5764.552  1.715919E-14
5765.79  1.653193E-14
5767.028  1.722234E-14
5768.266  1.763474E-14
5769.504  1.789563E-14
5770.742  1.796179E-14
5771.98  1.756538E-14
5773.218  1.763468E-14
5774.456  1.773666E-14
5775.694  1.788021E-14
5776.932  1.843184E-14
5778.17  1.845973E-14
5779.408  1.873282E-14
5780.646  1.896317E-14
5781.884  1.812953E-14
5783.122  1.826150E-14
5784.36  1.790409E-14
5785.598  1.791413E-14
5786.836  1.887355E-14
5788.074  1.900205E-14
5789.312  1.828351E-14
5790.55  1.805335E-14
5791.788  1.900650E-14
5793.026  1.955013E-14
5794.264  1.909512E-14
5795.502  1.890800E-14
5796.74  1.915727E-14
5797.978  1.924041E-14
5799.216  1.918815E-14
5800.454  1.952296E-14
5801.692  1.929320E-14
5802.93  1.831672E-14
5804.168  1.885109E-14
5805.406  1.936399E-14
5806.644  1.898882E-14
5807.882  1.888543E-14
5809.12  1.865793E-14
5810.358  1.890830E-14
5811.596  1.939533E-14
5812.834  2.039392E-14
5814.072  2.034960E-14
5815.31  2.015466E-14
5816.548  2.007749E-14
5817.786  1.984324E-14
5819.024  1.991380E-14
5820.262  2.024557E-14
5821.5  2.082965E-14
5822.738  2.053135E-14
5823.976  1.981054E-14
5825.214  2.002034E-14
5826.452  2.005135E-14
5827.69  1.952931E-14
5828.928  1.884208E-14
5830.166  1.923192E-14
5831.404  1.955014E-14
5832.642  1.926696E-14
5833.88  1.895880E-14
5835.118  1.969401E-14
5836.356  1.962600E-14
5837.594  2.012711E-14
5838.832  1.976159E-14
5840.07  1.958738E-14
5841.308  2.020342E-14
5842.546  2.062627E-14
5843.784  2.021394E-14
5845.022  1.956727E-14
5846.26  1.947314E-14
5847.498  1.975411E-14
5848.736  1.984303E-14
5849.974  1.989621E-14
5851.212  1.992047E-14
5852.45  1.979494E-14
5853.688  2.022088E-14
5854.926  2.050767E-14
5856.164  2.059846E-14
5857.402  1.978542E-14
5858.64  2.018238E-14
5859.878  2.063983E-14
5861.116  2.049182E-14
5862.354  2.006331E-14
5863.592  2.047223E-14
5864.83  2.106057E-14
5866.068  2.078026E-14
5867.306  1.974775E-14
5868.544  1.972586E-14
5869.782  1.995944E-14
5871.02  1.988720E-14
5872.258  1.938383E-14
5873.496  1.911367E-14
5874.734  1.984458E-14
5875.972  1.984518E-14
5877.21  1.961744E-14
5878.448  1.952834E-14
5879.686  1.938015E-14
5880.924  1.925666E-14
5882.162  1.951989E-14
5883.4  1.941032E-14
5884.638  1.943511E-14
5885.876  1.991135E-14
5887.114  1.973746E-14
5888.352  1.906006E-14
5889.59  1.892128E-14
5890.828  1.923914E-14
5892.066  1.902591E-14
5893.304  1.862499E-14
5894.542  1.807588E-14
5895.78  1.818502E-14
5897.018  1.872073E-14
5898.256  1.855569E-14
5899.494  1.811498E-14
5900.732  1.796385E-14
5901.97  1.828573E-14
5903.208  1.791206E-14
5904.446  1.723145E-14
5905.684  1.715548E-14
5906.922  1.728714E-14
5908.16  1.731015E-14
5909.398  1.704567E-14
5910.636  1.769595E-14
5911.874  1.754069E-14
5913.112  1.748379E-14
5914.35  1.745423E-14
5915.588  1.804432E-14
5916.826  1.838207E-14
5918.064  1.790219E-14
5919.302  1.735777E-14
5920.54  1.808726E-14
5921.778  1.867023E-14
5923.016  1.803807E-14
5924.254  1.841609E-14
5925.492  1.916144E-14
5926.73  1.833811E-14
5927.968  1.786814E-14
5929.206  1.835406E-14
5930.444  1.747059E-14
5931.682  1.699243E-14
5932.92  1.739569E-14
5934.158  1.789712E-14
5935.396  1.772465E-14
5936.634  1.706678E-14
5937.872  1.691211E-14
5939.11  1.745004E-14
5940.348  1.715839E-14
5941.586  1.697200E-14
5942.824  1.697007E-14
5944.062  1.687944E-14
5945.3  1.738834E-14
5946.538  1.748545E-14
5947.776  1.655139E-14
5949.014  1.622418E-14
5950.252  1.639350E-14
5951.49  1.577800E-14
5952.728  1.548647E-14
5953.966  1.632367E-14
5955.204  1.673669E-14
5956.442  1.566625E-14
5957.68  1.615312E-14
5958.918  1.619095E-14
5960.156  1.604602E-14
5961.394  1.598675E-14
5962.632  1.567669E-14
5963.87  1.560946E-14
5965.108  1.587984E-14
5966.346  1.587518E-14
5967.584  1.553069E-14
5968.822  1.481451E-14
5970.06  1.520803E-14
5971.298  1.588551E-14
5972.536  1.591082E-14
5973.774  1.542101E-14
5975.012  1.511845E-14
5976.25  1.521663E-14
5977.488  1.487728E-14
5978.726  1.523970E-14
5979.964  1.570784E-14
5981.202  1.587338E-14
5982.44  1.508114E-14
5983.678  1.537957E-14
5984.916  1.527583E-14
5986.154  1.507814E-14
5987.392  1.485238E-14
5988.63  1.492343E-14
5989.868  1.493818E-14
5991.106  1.455669E-14
5992.344  1.443622E-14
5993.582  1.458574E-14
5994.82  1.472420E-14
5996.058  1.532408E-14
5997.296  1.505240E-14
5998.534  1.491388E-14
5999.772  1.514397E-14
6001.01  1.484987E-14
6002.248  1.461468E-14
6003.486  1.438010E-14
6004.724  1.452270E-14
6005.962  1.433703E-14
6007.2  1.429530E-14
6008.438  1.424610E-14
6009.676  1.435994E-14
6010.914  1.441701E-14
6012.152  1.462815E-14
6013.39  1.461597E-14
6014.628  1.479816E-14
6015.866  1.467335E-14
6017.104  1.445676E-14
6018.342  1.450678E-14
6019.58  1.446300E-14
6020.818  1.473398E-14
6022.056  1.455702E-14
6023.294  1.409202E-14
6024.532  1.457675E-14
6025.77  1.499200E-14
6027.008  1.488419E-14
6028.246  1.494762E-14
6029.484  1.483511E-14
6030.722  1.440884E-14
6031.96  1.416302E-14
6033.198  1.493863E-14
6034.436  1.541955E-14
6035.674  1.416549E-14
6036.912  1.420503E-14
6038.15  1.476851E-14
6039.388  1.477092E-14
6040.626  1.457855E-14
6041.864  1.455899E-14
6043.102  1.436579E-14
6044.34  1.441172E-14
6045.578  1.446637E-14
6046.816  1.469318E-14
6048.054  1.475598E-14
6049.292  1.473927E-14
6050.53  1.456362E-14
6051.768  1.441505E-14
6053.006  1.427461E-14
6054.244  1.461322E-14
6055.482  1.476136E-14
6056.72  1.451756E-14
6057.958  1.475751E-14
6059.196  1.464338E-14
6060.434  1.420426E-14
6061.672  1.448389E-14
6062.91  1.514562E-14
6064.148  1.504074E-14
6065.386  1.501340E-14
6066.624  1.535191E-14
6067.862  1.494341E-14
6069.1  1.462219E-14
6070.338  1.523719E-14
6071.576  1.518652E-14
6072.814  1.468705E-14
6074.052  1.434939E-14
6075.29  1.468441E-14
6076.528  1.394236E-14
6077.766  1.402162E-14
6079.004  1.461113E-14
6080.242  1.494867E-14
6081.48  1.499035E-14
6082.718  1.488653E-14
6083.956  1.452382E-14
6085.194  1.429843E-14
6086.432  1.454658E-14
6087.67  1.448703E-14
6088.908  1.434741E-14
6090.146  1.504240E-14
6091.384  1.527194E-14
6092.622  1.451434E-14
6093.86  1.508814E-14
6095.098  1.540251E-14
6096.336  1.459854E-14
6097.574  1.438714E-14
6098.812  1.455336E-14
6100.05  1.476987E-14
6101.288  1.406961E-14
6102.526  1.333692E-14
6103.764  1.368093E-14
6105.002  1.370974E-14
6106.24  1.412870E-14
6107.478  1.421069E-14
6108.716  1.417362E-14
6109.954  1.393169E-14
6111.192  1.422302E-14
6112.43  1.384956E-14
6113.668  1.395385E-14
6114.906  1.447374E-14
6116.144  1.384050E-14
6117.382  1.326288E-14
6118.62  1.336595E-14
6119.858  1.365956E-14
6121.096  1.368423E-14
6122.334  1.290233E-14
6123.572  1.231461E-14
6124.81  1.260911E-14
6126.048  1.317654E-14
6127.286  1.336968E-14
6128.524  1.335474E-14
6129.762  1.337151E-14
6131.  1.394301E-14
6132.238  1.336455E-14
6133.476  1.325998E-14
6134.714  1.305367E-14
6135.952  1.246330E-14
6137.19  1.333916E-14
6138.428  1.292054E-14
6139.666  1.242586E-14
6140.904  1.247288E-14
6142.142  1.229222E-14
6143.38  1.207237E-14
6144.618  1.214514E-14
6145.856  1.186551E-14
6147.094  1.216680E-14
6148.332  1.229085E-14
6149.57  1.178594E-14
6150.808  1.128467E-14
6152.046  1.171134E-14
6153.284  1.202661E-14
6154.522  1.191719E-14
6155.76  1.213373E-14
6156.998  1.228337E-14
6158.236  1.225978E-14
6159.474  1.175924E-14
6160.712  1.203500E-14
6161.95  1.190355E-14
6163.188  1.165315E-14
6164.426  1.204026E-14
6165.664  1.190122E-14
6166.902  1.176713E-14
6168.14  1.167214E-14
6169.378  1.192184E-14
6170.616  1.168109E-14
6171.854  1.135847E-14
6173.092  1.154056E-14
6174.33  1.180208E-14
6175.568  1.190957E-14
6176.806  1.201604E-14
6178.044  1.235185E-14
6179.282  1.211844E-14
6180.52  1.160476E-14
6181.758  1.179688E-14
6182.996  1.152073E-14
6184.234  1.100367E-14
6185.472  1.139901E-14
6186.71  1.151372E-14
6187.948  1.179970E-14
6189.186  1.174129E-14
6190.424  1.185260E-14
6191.662  1.238554E-14
6192.9  1.237862E-14
6194.138  1.272842E-14
6195.376  1.336874E-14
6196.614  1.323500E-14
6197.852  1.297250E-14
6199.09  1.268111E-14
6200.328  1.238093E-14
6201.566  1.246069E-14
6202.804  1.226364E-14
6204.042  1.232774E-14
6205.28  1.247596E-14
6206.518  1.335830E-14
6207.756  1.387501E-14
6208.994  1.360547E-14
6210.232  1.368025E-14
6211.47  1.318238E-14
6212.708  1.341456E-14
6213.946  1.349122E-14
6215.184  1.361149E-14
6216.422  1.289949E-14
6217.66  1.309954E-14
6218.898  1.398689E-14
6220.136  1.357613E-14
6221.374  1.325273E-14
6222.612  1.369205E-14
6223.85  1.396551E-14
6225.088  1.367068E-14
6226.326  1.424920E-14
6227.564  1.393436E-14
6228.802  1.324909E-14
6230.04  1.318439E-14
6231.278  1.314998E-14
6232.516  1.267264E-14
6233.754  1.265503E-14
6234.992  1.321393E-14
6236.23  1.308737E-14
6237.468  1.296751E-14
6238.706  1.292384E-14
6239.944  1.250467E-14
6241.182  1.274122E-14
6242.42  1.297609E-14
6243.658  1.250055E-14
6244.896  1.203115E-14
6246.134  1.226426E-14
6247.372  1.278025E-14
6248.61  1.259455E-14
6249.848  1.272798E-14
6251.086  1.325262E-14
6252.324  1.306605E-14
6253.562  1.266177E-14
6254.8  1.300155E-14
6256.038  1.383407E-14
6257.276  1.320651E-14
6258.514  1.229029E-14
6259.752  1.207028E-14
6260.99  1.229986E-14
6262.228  1.266697E-14
6263.466  1.201098E-14
6264.704  1.210700E-14
6265.942  1.284547E-14
6267.18  1.284129E-14
6268.418  1.318887E-14
6269.656  1.292441E-14
6270.894  1.332616E-14
6272.132  1.349083E-14
6273.37  1.301490E-14
6274.608  1.346579E-14
6275.846  1.354803E-14
6277.084  1.374169E-14
6278.322  1.326222E-14
6279.56  1.286857E-14
6280.798  1.306643E-14
6282.036  1.265445E-14
6283.274  1.288028E-14
6284.512  1.424198E-14
6285.75  1.404601E-14
6286.988  1.324928E-14
6288.226  1.375455E-14
6289.464  1.420621E-14
6290.702  1.447611E-14
6291.94  1.443452E-14
6293.178  1.397368E-14
6294.416  1.384810E-14
6295.654  1.371552E-14
6296.892  1.370776E-14
6298.13  1.408066E-14
6299.368  1.397291E-14
6300.606  1.384010E-14
6301.844  1.440330E-14
6303.082  1.516707E-14
6304.32  1.498031E-14
6305.558  1.528649E-14
6306.796  1.524362E-14
6308.034  1.399633E-14
6309.272  1.372573E-14
6310.51  1.439561E-14
6311.748  1.541463E-14
6312.986  1.626399E-14
6314.224  1.601407E-14
6315.462  1.530782E-14
6316.7  1.441007E-14
6317.938  1.474485E-14
6319.176  1.537824E-14
6320.414  1.560268E-14
6321.652  1.603853E-14
6322.89  1.540099E-14
6324.128  1.454418E-14
6325.366  1.457426E-14
6326.604  1.488208E-14
6327.842  1.525267E-14
6329.08  1.509360E-14
6330.318  1.493822E-14
6331.556  1.509822E-14
6332.794  1.534683E-14
6334.032  1.629955E-14
6335.27  1.613560E-14
6336.508  1.541906E-14
6337.746  1.581908E-14
6338.984  1.571969E-14
6340.222  1.539587E-14
6341.46  1.612565E-14
6342.698  1.662109E-14
6343.936  1.720249E-14
6345.174  1.751947E-14
6346.412  1.696244E-14
6347.65  1.737369E-14
6348.888  1.750020E-14
6350.126  1.727897E-14
6351.364  1.813590E-14
6352.602  1.854593E-14
6353.84  1.772694E-14
6355.078  1.735059E-14
6356.316  1.707378E-14
6357.554  1.742115E-14
6358.792  1.745553E-14
6360.03  1.688456E-14
6361.268  1.823615E-14
6362.506  1.909025E-14
6363.744  1.710587E-14
6364.982  1.713980E-14
6366.22  1.782484E-14
6367.458  1.813938E-14
6368.696  1.918021E-14
6369.934  1.867712E-14
6371.172  1.789570E-14
6372.41  1.833608E-14
6373.648  1.892403E-14
6374.886  1.852521E-14
6376.124  1.883431E-14
6377.362  1.933029E-14
6378.6  1.791779E-14
6379.838  1.755625E-14
6381.076  1.956874E-14
6382.314  1.993695E-14
6383.552  1.891477E-14
6384.79  1.999699E-14
6386.028  2.091589E-14
6387.266  1.997527E-14
6388.504  1.955967E-14
6389.742  2.056979E-14
6390.98  2.120447E-14
6392.218  2.048910E-14
6393.456  2.039476E-14
6394.694  2.069098E-14
6395.932  2.075752E-14
6397.17  2.114654E-14
6398.408  2.047076E-14
6399.646  2.107528E-14
6400.884  2.183123E-14
6402.122  2.196930E-14
6403.36  2.206588E-14
6404.598  2.173237E-14
6405.836  2.240684E-14
6407.074  2.204408E-14
6408.312  2.226252E-14
6409.55  2.185605E-14
6410.788  2.107828E-14
6412.026  2.119678E-14
6413.264  2.113078E-14
6414.502  2.162175E-14
6415.74  2.067421E-14
6416.978  2.240746E-14
6418.216  2.297203E-14
6419.454  2.222670E-14
6420.692  2.198045E-14
6421.93  2.231910E-14
6423.168  2.191567E-14
6424.406  2.124527E-14
6425.644  2.225512E-14
6426.882  2.235323E-14
6428.12  2.222227E-14
6429.358  2.199876E-14
6430.596  2.283888E-14
6431.834  2.376398E-14
6433.072  2.330922E-14
6434.31  2.299852E-14
6435.548  2.201349E-14
6436.786  2.156934E-14
6438.024  2.207983E-14
6439.262  2.235387E-14
6440.5  2.252733E-14
6441.738  2.353374E-14
6442.976  2.310589E-14
6444.214  2.222270E-14
6445.452  2.212956E-14
6446.69  2.313447E-14
6447.928  2.326974E-14
6449.166  2.288821E-14
6450.404  2.282127E-14
6451.642  2.272695E-14
6452.88  2.238939E-14
6454.118  2.257643E-14
6455.356  2.350866E-14
6456.594  2.426127E-14
6457.832  2.471642E-14
6459.07  2.397940E-14
6460.308  2.291524E-14
6461.546  2.325735E-14
6462.784  2.340829E-14
6464.022  2.438467E-14
6465.26  2.412395E-14
6466.498  2.450067E-14
6467.736  2.594347E-14
6468.974  2.387946E-14
6470.212  2.221970E-14
6471.45  2.340853E-14
6472.688  2.331125E-14
6473.926  2.269482E-14
6475.164  2.303033E-14
6476.402  2.373893E-14
6477.64  2.380923E-14
6478.878  2.398839E-14
6480.116  2.499403E-14
6481.354  2.461894E-14
6482.592  2.442846E-14
6483.83  2.541295E-14
6485.068  2.428381E-14
6486.306  2.268641E-14
6487.544  2.305366E-14
6488.782  2.332432E-14
6490.02  2.321792E-14
6491.258  2.280345E-14
6492.496  2.228937E-14
6493.734  2.288145E-14
6494.972  2.399798E-14
6496.21  2.364379E-14
6497.448  2.276068E-14
6498.686  2.229371E-14
6499.924  2.160470E-14
6501.162  2.240387E-14
6502.4  2.293697E-14
6503.638  2.247770E-14
6504.876  2.316409E-14
6506.114  2.381823E-14
6507.352  2.223567E-14
6508.59  2.246853E-14
6509.828  2.350454E-14
6511.066  2.378597E-14
6512.304  2.368564E-14
6513.542  2.359210E-14
6514.78  2.330141E-14
6516.018  2.268276E-14
6517.256  2.372579E-14
6518.494  2.380181E-14
6519.732  2.316798E-14
6520.97  2.348701E-14
6522.208  2.411449E-14
6523.446  2.433884E-14
6524.684  2.336318E-14
6525.922  2.460726E-14
6527.16  2.580737E-14
6528.398  2.539192E-14
6529.636  2.416499E-14
6530.874  2.412275E-14
6532.112  2.338620E-14
6533.35  2.396520E-14
6534.588  2.395715E-14
6535.826  2.360033E-14
6537.064  2.435839E-14
6538.302  2.603390E-14
6539.54  2.566959E-14
6540.778  2.340019E-14
6542.016  2.256669E-14
6543.254  2.348691E-14
6544.492  2.396623E-14
6545.73  2.390849E-14
6546.968  2.498185E-14
6548.206  2.518029E-14
6549.444  2.281142E-14
6550.682  2.290581E-14
6551.92  2.485019E-14
6553.158  2.549363E-14
6554.396  2.434801E-14
6555.634  2.363412E-14
6556.872  2.301361E-14
6558.11  2.235470E-14
6559.348  2.356668E-14
6560.586  2.428586E-14
6561.824  2.413486E-14
6563.062  2.448450E-14
6564.3  2.441549E-14
6565.538  2.295238E-14
6566.776  2.291667E-14
6568.014  2.246517E-14
6569.252  2.346178E-14
6570.49  2.457111E-14
6571.728  2.336035E-14
6572.966  2.099187E-14
6574.204  2.183455E-14
6575.442  2.158365E-14
6576.68  2.237519E-14
6577.918  2.355320E-14
6579.156  2.433599E-14
6580.394  2.356150E-14
6581.632  2.171699E-14
6582.87  2.184000E-14
6584.108  2.287905E-14
6585.346  2.286614E-14
6586.584  2.224475E-14
6587.822  2.149434E-14
6589.06  2.189247E-14
6590.298  2.236140E-14
6591.536  2.241029E-14
6592.774  2.194493E-14
6594.012  2.102141E-14
6595.25  2.253914E-14
6596.488  2.335068E-14
6597.726  2.227053E-14
6598.964  2.206847E-14
6600.202  2.171771E-14
6601.44  2.229113E-14
6602.678  2.357022E-14
6603.916  2.343833E-14
6605.154  2.246864E-14
6606.392  2.097014E-14
6607.63  2.066439E-14
6608.868  2.128483E-14
6610.106  2.162725E-14
6611.344  2.115869E-14
6612.582  2.089011E-14
6613.82  2.132092E-14
6615.058  2.087551E-14
6616.296  1.992713E-14
6617.534  1.986103E-14
6618.772  1.977903E-14
6620.01  1.993123E-14
6621.248  1.979699E-14
6622.486  1.942936E-14
6623.724  1.915237E-14
6624.962  1.927982E-14
6626.2  1.986280E-14
6627.438  2.049180E-14
6628.676  2.063744E-14
6629.914  1.975881E-14
6631.152  1.931467E-14
6632.39  2.003212E-14
6633.628  1.946587E-14
6634.866  1.930300E-14
6636.104  1.895288E-14
6637.342  1.973868E-14
6638.58  2.049038E-14
6639.818  1.934124E-14
6641.056  1.913258E-14
6642.294  1.979909E-14
6643.532  1.933827E-14
6644.77  1.983357E-14
6646.008  1.975948E-14
6647.246  1.897257E-14
6648.484  1.819305E-14
6649.722  1.611422E-14
6650.96  1.577680E-14
6652.198  1.797178E-14
6653.436  1.920102E-14
6654.674  1.859106E-14
6655.912  1.848844E-14
6657.15  1.840472E-14
6658.388  1.777308E-14
6659.626  1.741233E-14
6660.864  1.762597E-14
6662.102  1.773745E-14
6663.34  1.734057E-14
6664.578  1.715759E-14
6665.816  1.743361E-14
6667.054  1.739497E-14
6668.292  1.780327E-14
6669.53  1.822595E-14
6670.768  1.702479E-14
6672.006  1.623478E-14
6673.244  1.634010E-14
6674.482  1.591465E-14
6675.72  1.681938E-14
6676.958  1.714013E-14
6678.196  1.616916E-14
6679.434  1.675917E-14
6680.672  1.698433E-14
6681.91  1.560329E-14
6683.148  1.565857E-14
6684.386  1.684461E-14
6685.624  1.778247E-14
6686.862  1.736671E-14
6688.1  1.659933E-14
6689.338  1.584455E-14
6690.576  1.566557E-14
6691.814  1.653862E-14
6693.052  1.624834E-14
6694.29  1.502968E-14
6695.528  1.551857E-14
6696.766  1.685259E-14
6698.004  1.699659E-14
6699.242  1.526830E-14
6700.48  1.561471E-14
6701.718  1.614903E-14
6702.956  1.597504E-14
6704.194  1.579557E-14
6705.432  1.611604E-14
6706.67  1.687100E-14
6707.908  1.545509E-14
6709.146  1.507789E-14
6710.384  1.519912E-14
6711.622  1.484551E-14
6712.86  1.562215E-14
6714.098  1.590211E-14
6715.336  1.394975E-14
6716.574  1.387994E-14
6717.812  1.482444E-14
6719.05  1.510318E-14
6720.288  1.659254E-14
6721.526  1.826325E-14
6722.764  1.590605E-14
6724.002  1.491369E-14
6725.24  1.475147E-14
6726.478  1.447778E-14
6727.716  1.503395E-14
6728.954  1.485248E-14
6730.192  1.508701E-14
6731.43  1.512144E-14
6732.668  1.551016E-14
6733.906  1.480943E-14
6735.144  1.330948E-14
6736.382  1.288995E-14
6737.62  1.446395E-14
6738.858  1.491550E-14
6740.096  1.416494E-14
6741.334  1.496479E-14
6742.572  1.602484E-14
6743.81  1.632236E-14
6745.048  1.584482E-14
6746.286  1.439553E-14
6747.524  1.384442E-14
6748.762  1.499987E-14
6750.  1.627265E-14
6751.238  1.589557E-14
6752.476  1.503039E-14
6753.714  1.599685E-14
6754.952  1.500346E-14
6756.19  1.381101E-14
6757.428  1.448669E-14
6758.666  1.423520E-14
6759.904  1.342562E-14
6761.142  1.422711E-14
6762.38  1.522955E-14
6763.618  1.462774E-14
6764.856  1.514650E-14
6766.094  1.511212E-14
6767.332  1.335733E-14
6768.57  1.234066E-14
6769.808  1.377808E-14
6771.046  1.349114E-14
6772.284  1.282613E-14
6773.522  1.364255E-14
6774.76  1.447577E-14
6775.998  1.522354E-14
6777.236  1.493529E-14
6778.474  1.362716E-14
6779.712  1.314679E-14
6780.95  1.396125E-14
6782.188  1.560014E-14
6783.426  1.538621E-14
6784.664  1.418136E-14
6785.902  1.402352E-14
6787.14  1.399286E-14
6788.378  1.271645E-14
6789.616  1.265644E-14
6790.854  1.323427E-14
6792.092  1.266173E-14
6793.33  1.333714E-14
6794.568  1.318627E-14
6795.806  1.268103E-14
6797.044  1.438383E-14
6798.282  1.496022E-14
6799.52  1.413671E-14
6800.758  1.285834E-14
6801.996  1.299130E-14
6803.234  1.343947E-14
6804.472  1.306036E-14
6805.71  1.384098E-14
6806.948  1.374151E-14
6808.186  1.285782E-14
6809.424  1.270370E-14
6810.662  1.261507E-14
6811.9  1.441993E-14
6813.138  1.417427E-14
6814.376  1.455030E-14
6815.614  1.411681E-14
6816.852  1.168410E-14
6818.09  1.276470E-14
6819.328  1.349812E-14
6820.566  1.325756E-14
6821.804  1.274220E-14
6823.042  1.290242E-14
6824.28  1.211118E-14
6825.518  1.194151E-14
6826.756  1.266394E-14
6827.994  1.294433E-14
6829.232  1.368100E-14
6830.47  1.272134E-14
6831.708  1.232179E-14
6832.946  1.326478E-14
6834.184  1.276106E-14
6835.422  1.274431E-14
6836.66  1.253635E-14
6837.898  1.147647E-14
6839.136  1.176179E-14
6840.374  1.186209E-14
6841.612  1.177450E-14
6842.85  1.115744E-14
6844.088  1.181660E-14
6845.326  1.218943E-14
6846.564  1.194491E-14
6847.802  1.238269E-14
6849.04  1.229329E-14
6850.278  1.207212E-14
6851.516  1.268469E-14
6852.754  1.220051E-14
6853.992  1.270121E-14
6855.23  1.273278E-14
6856.468  1.113026E-14
6857.706  1.105238E-14
6858.944  1.180111E-14
6860.182  1.117357E-14
6861.42  1.003081E-14
6862.658  1.169539E-14
6863.896  1.279944E-14
6865.134  1.120342E-14
6866.372  1.030851E-14
6867.61  9.849375E-15
6868.848  9.789678E-15
6870.086  9.023423E-15
6871.324  8.574528E-15
6872.562  8.505221E-15
6873.8  9.345228E-15
6875.038  1.007056E-14
6876.276  9.516718E-15
6877.514  9.539026E-15
6878.752  1.015597E-14
6879.99  1.082120E-14
6881.228  1.122382E-14
6882.466  1.054248E-14
6883.704  1.100089E-14
6884.942  1.183416E-14
6886.18  1.075854E-14
6887.418  1.175248E-14
6888.656  1.142546E-14
6889.894  1.018807E-14
6891.132  9.381781E-15
6892.37  1.034307E-14
6893.608  9.923264E-15
6894.846  9.475840E-15
6896.084  1.013776E-14
6897.322  1.079648E-14
6898.56  1.193239E-14
6899.798  1.178911E-14
6901.036  1.101853E-14
6902.274  1.071342E-14
6903.512  1.039324E-14
6904.75  1.069059E-14
6905.988  1.157380E-14
6907.226  1.225469E-14
6908.464  1.230605E-14
6909.702  1.197841E-14
6910.94  1.154623E-14
6912.178  1.100135E-14
6913.416  1.068656E-14
6914.654  1.104811E-14
6915.892  1.044261E-14
6917.13  1.075296E-14
6918.368  1.164104E-14
6919.606  1.259113E-14
6920.844  1.282063E-14
6922.082  1.159617E-14
6923.32  1.112760E-14
6924.558  1.150858E-14
6925.796  1.135428E-14
6927.034  1.146959E-14
6928.272  1.168335E-14
6929.51  1.178434E-14
6930.748  1.274086E-14
6931.986  1.339020E-14
6933.224  1.416110E-14
6934.462  1.423157E-14
6935.7  1.269654E-14
6936.938  1.286125E-14
6938.176  1.201589E-14
6939.414  1.293457E-14
6940.652  1.280623E-14
6941.89  1.225870E-14
6943.128  1.246659E-14
6944.366  1.382498E-14
6945.604  1.269694E-14
6946.842  1.181115E-14
6948.08  1.157514E-14
6949.318  1.075617E-14
6950.556  1.178898E-14
6951.794  1.334930E-14
6953.032  1.404312E-14
6954.27  1.410118E-14
6955.508  1.316383E-14
6956.746  1.286215E-14
6957.984  1.145118E-14
6959.222  1.277893E-14
6960.46  1.406946E-14
6961.698  1.416776E-14
6962.936  1.654716E-14
6964.174  1.444217E-14
6965.412  1.447092E-14
6966.65  1.514376E-14
6967.888  1.492213E-14
6969.126  1.411802E-14
6970.364  1.463699E-14
6971.602  1.635851E-14
6972.84  1.550290E-14
6974.078  1.430891E-14
6975.316  1.361466E-14
6976.554  1.528690E-14
6977.792  1.769098E-14
6979.03  1.453018E-14
6980.268  1.780312E-14
6981.506  1.821697E-14
6982.744  1.801608E-14
6983.982  1.884278E-14
6985.22  2.045046E-14
6986.458  2.200364E-14
6987.696  2.116406E-14
6988.934  2.120213E-14
6990.172  2.398975E-14
6991.41  2.924613E-14
6992.648  3.339443E-14
6993.886  5.316277E-14
6995.124  4.125102E-14
6996.362  0.
