# TELESCOPE = Liverpool Telescope
# INSTRUMENT = SPRAT
# PROPOSAL = PL22A20b
# OBJECT = 2022jrq
# RA = 13:45:29.924
# DEC = 25:38:0.14
# DATE-OBS = 2022-05-18T23:21:16.165
# MJD-OBS = 59717.973104
# EXPTIME-OBS = 1800.0s
# AIRMASS-OBS = 1.002285
# SEEING-OBS = 0.770939
# wl fl
# [A] [Normalised]
4020.000000 1.00375
4038.400000 0.803585
4047.600000 0.935303
4056.800000 0.899365
4066.000000 1.50792
4075.200000 1.34165
4084.400000 1.24425
4093.600000 1.3065
4102.800000 1.26359
4112.000000 1.46587
4121.200000 1.62219
4130.400000 1.48508
4139.600000 1.57483
4148.800000 1.91336
4158.000000 1.60713
4167.200000 1.45138
4176.400000 1.56811
4185.600000 1.39076
4194.800000 1.49436
4204.000000 1.1843
4213.200000 1.40726
4222.400000 1.24486
4231.600000 1.48966
4240.800000 1.24325
4250.000000 1.48367
4259.200000 1.65954
4268.400000 1.6077
4277.600000 1.74592
4286.800000 1.68239
4296.000000 1.48214
4305.200000 1.68677
4314.400000 1.74188
4323.600000 1.6888
4332.800000 1.59658
4342.000000 1.58809
4351.200000 1.43531
4360.400000 1.59929
4369.600000 1.62584
4378.800000 1.57011
4388.000000 1.49548
4397.200000 1.58853
4406.400000 1.53624
4415.600000 1.49523
4424.800000 1.44345
4434.000000 1.40409
4443.200000 1.43155
4452.400000 1.32408
4461.600000 1.14141
4470.800000 1.17207
4480.000000 1.21279
4489.200000 1.16643
4498.400000 1.2636
4507.600000 1.12326
4516.800000 1.09655
4526.000000 1.00414
4535.200000 1.12253
4544.400000 1.04466
4553.600000 1.00164
4562.800000 1.03289
4572.000000 1.08523
4581.200000 1.14323
4590.400000 1.20427
4599.600000 1.12663
4608.800000 1.26687
4618.000000 1.20201
4627.200000 1.23802
4636.400000 1.19105
4645.600000 1.14806
4654.800000 1.02911
4664.000000 1.04096
4673.200000 1.14607
4682.400000 1.04372
4691.600000 1.13416
4700.800000 1.18539
4710.000000 1.29524
4719.200000 1.25017
4728.400000 1.2758
4737.600000 1.25971
4746.800000 1.33681
4756.000000 1.38738
4765.200000 1.41605
4774.400000 1.41917
4783.600000 1.46844
4792.800000 1.38076
4802.000000 1.35156
4811.200000 1.37987
4820.400000 1.38254
4829.600000 1.39866
4838.800000 1.38279
4848.000000 1.49275
4857.200000 1.35999
4866.400000 1.39665
4875.600000 1.29481
4884.800000 1.24407
4894.000000 1.32434
4903.200000 1.33398
4912.400000 1.22392
4921.600000 1.1777
4930.800000 1.14912
4940.000000 1.15528
4949.200000 1.2047
4958.400000 1.15124
4967.600000 1.10598
4976.800000 1.13173
4986.000000 1.12855
4995.200000 1.06807
5004.400000 1.04244
5013.600000 1.11557
5022.800000 1.01203
5032.000000 1.05399
5041.200000 1.12622
5050.400000 1.17714
5059.600000 1.06908
5068.800000 1.04137
5078.000000 1.01705
5087.200000 0.99802
5096.400000 0.940349
5105.600000 0.904877
5114.800000 0.868826
5124.000000 0.931469
5133.200000 0.85748
5142.400000 0.900584
5151.600000 0.931709
5160.800000 0.839024
5170.000000 0.986093
5179.200000 0.897574
5188.400000 0.928067
5197.600000 0.987358
5206.800000 0.991539
5216.000000 0.926886
5225.200000 0.914669
5234.400000 0.845252
5243.600000 0.892608
5252.800000 0.962421
5262.000000 0.912017
5271.200000 0.893221
5280.400000 0.961262
5289.600000 0.951618
5298.800000 0.914403
5308.000000 0.958039
5317.200000 0.921923
5326.400000 0.925008
5335.600000 1.05375
5344.800000 1.02443
5354.000000 1.06025
5363.200000 1.08926
5372.400000 1.12997
5381.600000 1.11984
5390.800000 1.14281
5400.000000 1.17223
5409.200000 1.12742
5418.400000 1.11574
5427.600000 1.12809
5436.800000 1.06853
5446.000000 1.09273
5455.200000 1.07074
5464.400000 1.17602
5473.600000 1.15777
5482.800000 1.13638
5492.000000 1.11264
5501.200000 1.07259
5510.400000 1.07677
5519.600000 1.01452
5528.800000 0.992378
5538.000000 0.928851
5547.200000 0.830048
5556.400000 0.871172
5574.800000 0.895215
5584.000000 0.7932
5593.200000 0.831233
5602.400000 0.904267
5611.600000 0.859763
5620.800000 0.91829
5630.000000 0.919341
5639.200000 1.00051
5648.400000 0.93006
5657.600000 0.966075
5666.800000 0.914833
5676.000000 0.900183
5685.200000 1.02079
5694.400000 0.961079
5703.600000 0.934088
5712.800000 0.902236
5722.000000 0.845497
5731.200000 0.796624
5740.400000 0.792628
5749.600000 0.883573
5758.800000 0.788546
5768.000000 0.797729
5777.200000 0.842369
5786.400000 0.910015
5795.600000 0.977237
5804.800000 0.929017
5814.000000 0.974226
5823.200000 0.98545
5832.400000 1.02591
5841.600000 1.01911
5850.800000 1.03711
5860.000000 1.06406
5869.200000 1.0014
5878.400000 0.99312
5887.600000 0.938239
5896.800000 0.998368
5906.000000 1.03536
5915.200000 1.02313
5924.400000 1.05063
5933.600000 1.03817
5942.800000 0.917358
5952.000000 1.05531
5961.200000 1.05249
5970.400000 1.04653
5979.600000 1.0372
5988.800000 1.02826
5998.000000 1.05375
6007.200000 1.1073
6016.400000 0.997892
6025.600000 1.05998
6034.800000 1.02688
6044.000000 1.03005
6053.200000 0.958467
6062.400000 1.00554
6071.600000 0.992678
6080.800000 1.02505
6090.000000 1.0508
6099.200000 1.00209
6108.400000 1.02432
6117.600000 1.04694
6126.800000 1.01029
6136.000000 0.9425
6145.200000 0.959441
6154.400000 1.01039
6163.600000 0.99253
6172.800000 1.0101
6182.000000 1.02486
6191.200000 0.980641
6200.400000 1.00047
6209.600000 1.01635
6218.800000 0.988995
6228.000000 1.0038
6237.200000 0.959915
6246.400000 0.894439
6255.600000 0.909434
6264.800000 0.995967
6274.000000 1.07308
6283.200000 1.01648
6292.400000 1.03317
6301.600000 0.971408
6310.800000 0.949291
6320.000000 0.993411
6329.200000 0.953609
6338.400000 0.969864
6347.600000 1.01074
6356.800000 0.980404
6366.000000 0.954669
6375.200000 0.998746
6384.400000 0.903461
6393.600000 0.813704
6402.800000 0.859254
6412.000000 0.746193
6421.200000 0.687546
6430.400000 0.706754
6439.600000 0.576154
6448.800000 0.540746
6458.000000 0.599486
6467.200000 0.550381
6476.400000 0.535329
6485.600000 0.599429
6494.800000 0.639689
6504.000000 0.54759
6513.200000 0.658454
6522.400000 0.612498
6531.600000 0.632579
6540.800000 0.667134
6550.000000 0.705434
6559.200000 0.729418
6568.400000 0.770011
6577.600000 0.813235
6586.800000 0.816594
6596.000000 0.835619
6605.200000 0.92419
6614.400000 0.84384
6623.600000 0.822796
6632.800000 0.914566
6642.000000 0.907495
6651.200000 0.900574
6660.400000 0.981398
6669.600000 0.938966
6678.800000 0.851425
6688.000000 0.871018
6697.200000 0.88695
6706.400000 0.921878
6715.600000 0.910923
6724.800000 0.914813
6734.000000 0.905177
6743.200000 0.879734
6752.400000 0.908942
6761.600000 0.920807
6770.800000 0.92868
6780.000000 0.93276
6789.200000 0.813832
6798.400000 0.861876
6807.600000 0.944724
6816.800000 0.92019
6826.000000 0.853217
6835.200000 0.865517
6844.400000 0.84771
6853.600000 0.81876
6862.800000 0.73598
6872.000000 0.709408
6881.200000 0.723595
6890.400000 0.726089
6899.600000 0.765186
6908.800000 0.747965
6918.000000 0.768656
6927.200000 0.749733
6936.400000 0.807707
6945.600000 0.783045
6954.800000 0.753897
6964.000000 0.737142
6973.200000 0.735847
6982.400000 0.740329
6991.600000 0.733646
7000.800000 0.747748
7010.000000 0.796086
7019.200000 0.738577
7028.400000 0.671846
7037.600000 0.643806
7046.800000 0.75449
7056.000000 0.747567
7065.200000 0.68205
7074.400000 0.69531
7083.600000 0.67449
7092.800000 0.685067
7102.000000 0.649856
7111.200000 0.758053
7120.400000 0.659161
7129.600000 0.656457
7138.800000 0.706488
7148.000000 0.624463
7157.200000 0.651703
7166.400000 0.567306
7175.600000 0.635998
7184.800000 0.591557
7194.000000 0.674656
7203.200000 0.544784
7212.400000 0.695769
7221.600000 0.645522
7230.800000 0.583322
7240.000000 0.716152
7249.200000 0.686273
7258.400000 0.656385
7267.600000 0.623168
7276.800000 0.659267
7286.000000 0.546028
7295.200000 0.617779
7304.400000 0.667831
7313.600000 0.636283
7322.800000 0.536886
7332.000000 0.460901
7341.200000 0.670304
7350.400000 0.640414
7359.600000 0.596094
7368.800000 0.541973
7378.000000 0.543494
7387.200000 0.611032
7396.400000 0.654763
7405.600000 0.60635
7414.800000 0.569403
7424.000000 0.630367
7433.200000 0.588253
7442.400000 0.655709
7451.600000 0.659258
7460.800000 0.590398
7470.000000 0.645292
7479.200000 0.693898
7488.400000 0.6109
7497.600000 0.621614
7506.800000 0.582361
7516.000000 0.609932
7525.200000 0.591322
7534.400000 0.686169
7543.600000 0.636532
7552.800000 0.581608
7562.000000 0.6004
7571.200000 0.46295
7580.400000 0.517648
7589.600000 0.538974
7598.800000 0.28724
7608.000000 0.291728
7617.200000 0.305399
7626.400000 0.351796
7635.600000 0.253377
7644.800000 0.527338
7654.000000 0.542451
7663.200000 0.428417
7672.400000 0.466736
7681.600000 0.674551
7690.800000 0.499878
7700.000000 0.538568
7709.200000 0.549436
7718.400000 0.568545
7727.600000 0.591015
7736.800000 0.434199
7746.000000 0.402266
7755.200000 0.488348
7764.400000 0.611037
7773.600000 0.465649
7782.800000 0.547747
7792.000000 0.456865
7801.200000 0.687368
7810.400000 0.500282
7819.600000 0.551982
7828.800000 0.315157
7838.000000 0.698837
7847.200000 0.517005
7856.400000 0.374933
7865.600000 0.443962
7874.800000 0.634524
7884.000000 0.415145
7893.200000 0.465044
7902.400000 0.687957
7911.600000 0.610973
7920.800000 0.688336
7930.000000 0.465622
7939.200000 0.6141
7948.400000 0.539311
7957.600000 0.203489
7966.800000 0.919163
7976.000000 0.641441
7985.200000 0.831475
7994.400000 0.393321
